#X Y
#wavelengths, adjustedND194.992857143 -1.0
195.457142857 -1.0
195.921428571 -1.0
196.385714286 -1.0
196.85 -1.0
197.314285714 -1.0
197.778571429 -1.0
198.242857143 -1.0
198.707142857 -1.0
199.171428571 -1.0
199.635714286 -1.0
200.1 -1.0
200.564285714 -1.0
201.028571429 -1.0
201.492857143 -1.0
201.957142857 -1.0
202.421428571 -1.0
202.885714286 -1.0
203.35 -1.0
203.814285714 -1.0
204.278571429 -1.0
204.742857143 -1.0
205.207142857 -1.0
205.671428571 -1.0
206.135714286 -1.0
206.6 -1.0
207.064285714 -1.0
207.528571429 -1.0
207.992857143 -1.0
208.457142857 -1.0
208.921428571 -1.0
209.385714286 -1.0
209.85 -1.0
210.314285714 -1.0
210.778571429 -1.0
211.242857143 -1.0
211.707142857 -1.0
212.171428571 -1.0
212.635714286 -1.0
213.1 -1.0
213.564285714 -1.0
214.028571429 -1.0
214.492857143 -1.0
214.957142857 -1.0
215.421428571 -1.0
215.885714286 -1.0
216.35 -1.0
216.814285714 -1.0
217.278571429 -1.0
217.742857143 -1.0
218.207142857 -1.0
218.671428571 -1.0
219.135714286 -1.0
219.6 -1.0
220.064285714 -1.0
220.528571429 -1.0
220.992857143 -1.0
221.457142857 -1.0
221.921428571 -1.0
222.385714286 -1.0
222.85 -1.0
223.314285714 -1.0
223.778571429 -1.0
224.242857143 -1.0
224.707142857 -1.0
225.171428571 -1.0
225.635714286 -1.0
226.1 -1.0
226.564285714 -1.0
227.028571429 -1.0
227.492857143 -1.0
227.957142857 -1.0
228.421428571 -1.0
228.885714286 -1.0
229.35 -1.0
229.814285714 -1.0
230.278571429 -1.0
230.742857143 -1.0
231.207142857 -1.0
231.671428571 -1.0
232.135714286 -1.0
232.6 -1.0
233.064285714 -1.0
233.528571429 -1.0
233.992857143 -1.0
234.457142857 -1.0
234.921428571 -1.0
235.385714286 -1.0
235.85 -1.0
236.314285714 -1.0
236.778571429 -1.0
237.242857143 -1.0
237.707142857 -1.0
238.171428571 -1.0
238.635714286 -1.0
239.1 -1.0
239.564285714 -1.0
240.028571429 -1.0
240.492857143 -1.0
240.957142857 -1.0
241.421428571 -1.0
241.885714286 -1.0
242.35 -1.0
242.814285714 -1.0
243.278571429 -1.0
243.742857143 -1.0
244.207142857 -1.0
244.671428571 -1.0
245.135714286 -1.0
245.6 -1.0
246.064285714 -1.0
246.528571429 -1.0
246.992857143 -1.0
247.457142857 -1.0
247.921428571 -1.0
248.385714286 -1.0
248.85 -1.0
249.314285714 -1.0
249.778571429 -1.0
250.242857143 -1.0
250.707142857 -1.0
251.171428571 -1.0
251.635714286 -1.0
252.1 -1.0
252.564285714 -1.0
253.028571429 -1.0
253.492857143 -1.0
253.957142857 -1.0
254.421428571 -1.0
254.885714286 -1.0
255.35 -1.0
255.814285714 -1.0
256.278571429 -1.0
256.742857143 -1.0
257.207142857 -1.0
257.671428571 -1.0
258.135714286 -1.0
258.6 -1.0
259.064285714 -1.0
259.528571429 -1.0
259.992857143 -1.0
260.457142857 -1.0
260.921428571 -1.0
261.385714286 -1.0
261.85 -1.0
262.314285714 -1.0
262.778571429 -1.0
263.242857143 -1.0
263.707142857 -1.0
264.171428571 -1.0
264.635714286 -1.0
265.1 -1.0
265.564285714 -1.0
266.028571429 -1.0
266.492857143 -1.0
266.957142857 -1.0
267.421428571 -1.0
267.885714286 -1.0
268.35 -1.0
268.814285714 -1.0
269.278571429 -1.0
269.742857143 -1.0
270.207142857 0.131302
270.671428571 0.131302
271.135714286 0.132100571429
271.6 0.132100571429
272.064285714 0.132899142857
272.528571429 0.132899142857
272.992857143 0.132899142857
273.457142857 0.133697714286
273.921428571 0.133697714286
274.385714286 0.134496285714
274.85 0.134496285714
275.314285714 0.133465714286
275.778571429 0.133465714286
276.242857143 0.133372857143
276.707142857 0.133372857143
277.171428571 0.13328
277.635714286 0.13328
278.1 0.133187142857
278.564285714 0.133187142857
279.028571429 0.133094285714
279.492857143 0.133094285714
279.957142857 0.133094285714
280.421428571 0.133001428571
280.885714286 0.133001428571
281.35 0.132836571429
281.814285714 0.132836571429
282.278571429 0.132873714286
282.742857143 0.132873714286
283.207142857 0.132910857143
283.671428571 0.132910857143
284.135714286 0.132948
284.6 0.132948
285.064285714 0.132985142857
285.528571429 0.132985142857
285.992857143 0.132985142857
286.457142857 0.132877714286
286.921428571 0.132877714286
287.385714286 0.132840571429
287.85 0.132840571429
288.314285714 0.132803428571
288.778571429 0.132803428571
289.242857143 0.132766285714
289.707142857 0.132766285714
290.171428571 0.132729142857
290.635714286 0.132729142857
291.1 0.132336
291.564285714 0.132336
292.028571429 0.132503142857
292.492857143 0.132503142857
292.957142857 0.132503142857
293.421428571 0.132670285714
293.885714286 0.132670285714
294.35 0.132837428571
294.814285714 0.132837428571
295.278571429 0.133004571429
295.742857143 0.133004571429
296.207142857 0.133171714286
296.671428571 0.133171714286
297.135714286 0.132476571429
297.6 0.132476571429
298.064285714 0.132328
298.528571429 0.132328
298.992857143 0.132328
299.457142857 0.132179428571
299.921428571 0.132179428571
300.385714286 0.132030857143
300.85 0.132030857143
301.314285714 0.131882285714
301.778571429 0.131882285714
302.242857143 0.132291714286
302.707142857 0.132291714286
303.171428571 0.132273142857
303.635714286 0.132273142857
304.1 0.132254571429
304.564285714 0.132254571429
305.028571429 0.132236
305.492857143 0.132236
305.957142857 0.132236
306.421428571 0.132217428571
306.885714286 0.132217428571
307.35 0.132301142857
307.814285714 0.132301142857
308.278571429 0.132319714286
308.742857143 0.132319714286
309.207142857 0.132338285714
309.671428571 0.132338285714
310.135714286 0.132356857143
310.6 0.132356857143
311.064285714 0.132375428571
311.528571429 0.132375428571
311.992857143 0.132375428571
312.457142857 0.132394
312.921428571 0.132394
313.385714286 0.132013142857
313.85 0.132013142857
314.314285714 0.132180285714
314.778571429 0.132180285714
315.242857143 0.132347428571
315.707142857 0.132347428571
316.171428571 0.132514571429
316.635714286 0.132514571429
317.1 0.132681714286
317.564285714 0.132681714286
318.028571429 0.133929428571
318.492857143 0.133929428571
318.957142857 0.133929428571
319.421428571 0.133688
319.885714286 0.133688
320.35 0.133446571429
320.814285714 0.133446571429
321.278571429 0.133205142857
321.742857143 0.133205142857
322.207142857 0.132963714286
322.671428571 0.132963714286
323.135714286 0.132722285714
323.6 0.132722285714
324.064285714 0.132234857143
324.528571429 0.132234857143
324.992857143 0.132234857143
325.457142857 0.132383428571
325.921428571 0.132383428571
326.385714286 0.132532
326.85 0.132532
327.314285714 0.132680571429
327.778571429 0.132680571429
328.242857143 0.132829142857
328.707142857 0.132829142857
329.171428571 0.132690285714
329.635714286 0.132690285714
330.1 0.132671714286
330.564285714 0.132671714286
331.028571429 0.132653142857
331.492857143 0.132653142857
331.957142857 0.132653142857
332.421428571 0.132634571429
332.885714286 0.132634571429
333.35 0.132616
333.814285714 0.132616
334.278571429 0.132310285714
334.742857143 0.132310285714
335.207142857 0.132384571429
335.671428571 0.132384571429
336.135714286 0.132458857143
336.6 0.132458857143
337.064285714 0.132533142857
337.528571429 0.132533142857
337.992857143 0.132533142857
338.457142857 0.132607428571
338.921428571 0.132607428571
339.385714286 0.132681714286
339.85 0.132681714286
340.314285714 0.13233
340.778571429 0.13233
341.242857143 0.132237142857
341.707142857 0.132237142857
342.171428571 0.132144285714
342.635714286 0.132144285714
343.1 0.132051428571
343.564285714 0.132051428571
344.028571429 0.131958571429
344.492857143 0.131958571429
344.957142857 0.131958571429
345.421428571 0.132669714286
345.885714286 0.132669714286
346.35 0.132316857143
346.814285714 0.132316857143
347.278571429 0.131964
347.742857143 0.131964
348.207142857 0.131611142857
348.671428571 0.131611142857
349.135714286 0.131258285714
349.6 0.131258285714
350.064285714 0.130905428571
350.528571429 0.130905428571
350.992857143 0.130905428571
351.457142857 0.130680571429
351.921428571 0.130680571429
352.385714286 0.130457714286
352.85 0.130457714286
353.314285714 0.130234857143
353.778571429 0.130234857143
354.242857143 0.130012
354.707142857 0.130012
355.171428571 0.129789142857
355.635714286 0.129789142857
356.1 0.129688571429
356.564285714 0.129688571429
357.028571429 0.129502857143
357.492857143 0.129502857143
357.957142857 0.129502857143
358.421428571 0.129317142857
358.885714286 0.129317142857
359.35 0.129131428571
359.814285714 0.129131428571
360.278571429 0.128945714286
360.742857143 0.128945714286
361.207142857 0.128004
361.671428571 0.128004
362.135714286 0.128022571429
362.6 0.128022571429
363.064285714 0.128041142857
363.528571429 0.128041142857
363.992857143 0.128041142857
364.457142857 0.128059714286
364.921428571 0.128059714286
365.385714286 0.128078285714
365.85 0.128078285714
366.314285714 0.128096857143
366.778571429 0.128096857143
367.242857143 0.128514857143
367.707142857 0.128514857143
368.171428571 0.128292
368.635714286 0.128292
369.1 0.128069142857
369.564285714 0.128069142857
370.028571429 0.127846285714
370.492857143 0.127846285714
370.957142857 0.127846285714
371.421428571 0.127623428571
371.885714286 0.127623428571
372.35 0.128440285714
372.814285714 0.128440285714
373.278571429 0.128978857143
373.742857143 0.128978857143
374.207142857 0.129517428571
374.671428571 0.129517428571
375.135714286 0.130056
375.6 0.130056
376.064285714 0.130594571429
376.528571429 0.130594571429
376.992857143 0.130594571429
377.457142857 0.126474285714
377.921428571 0.126474285714
378.385714286 0.127681428571
378.85 0.127681428571
379.314285714 0.128888571429
379.778571429 0.128888571429
380.242857143 0.130095714286
380.707142857 0.130095714286
381.171428571 0.131302857143
381.635714286 0.131302857143
382.1 0.13251
382.564285714 0.13251
383.028571429 0.140783428571
383.492857143 0.140783428571
383.957142857 0.140783428571
384.421428571 0.142974857143
384.885714286 0.142974857143
385.35 0.145166285714
385.814285714 0.145166285714
386.278571429 0.147357714286
386.742857143 0.147357714286
387.207142857 0.149549142857
387.671428571 0.149549142857
388.135714286 0.155536857143
388.6 0.155536857143
389.064285714 0.159084
389.528571429 0.159084
389.992857143 0.159084
390.457142857 0.162631142857
390.921428571 0.162631142857
391.385714286 0.166178285714
391.85 0.166178285714
392.314285714 0.169725428571
392.778571429 0.169725428571
393.242857143 0.173272571429
393.707142857 0.173272571429
394.171428571 0.177281714286
394.635714286 0.177281714286
395.1 0.181998857143
395.564285714 0.181998857143
396.028571429 0.186716
396.492857143 0.186716
396.957142857 0.186716
397.421428571 0.191433142857
397.885714286 0.191433142857
398.35 0.196150285714
398.814285714 0.196150285714
399.278571429 0.197277714286
399.742857143 0.197277714286
400.207142857 0.200676285714
400.671428571 0.200676285714
401.135714286 0.204074857143
401.6 0.204074857143
402.064285714 0.207473428571
402.528571429 0.207473428571
402.992857143 0.207473428571
403.457142857 0.210872
403.921428571 0.210872
404.385714286 0.212235714286
404.85 0.212235714286
405.314285714 0.218271428571
405.778571429 0.218271428571
406.242857143 0.224307142857
406.707142857 0.224307142857
407.171428571 0.230342857143
407.635714286 0.230342857143
408.1 0.236378571429
408.564285714 0.236378571429
409.028571429 0.242414285714
409.492857143 0.242414285714
409.957142857 0.242414285714
410.421428571 0.230092
410.885714286 0.230092
411.35 0.230612
411.814285714 0.230612
412.278571429 0.231132
412.742857143 0.231132
413.207142857 0.231652
413.671428571 0.231652
414.135714286 0.232172
414.6 0.232172
415.064285714 0.245636571429
415.528571429 0.245636571429
415.992857143 0.245636571429
416.457142857 0.247902285714
416.921428571 0.247902285714
417.385714286 0.250168
417.85 0.250168
418.314285714 0.252433714286
418.778571429 0.252433714286
419.242857143 0.254699428571
419.707142857 0.254699428571
420.171428571 0.256965142857
420.635714286 0.256965142857
421.1 0.260150857143
421.564285714 0.260150857143
422.028571429 0.270866571429
422.492857143 0.270866571429
422.957142857 0.270866571429
423.421428571 0.281582285714
423.885714286 0.281582285714
424.35 0.292298
424.814285714 0.292298
425.278571429 0.303013714286
425.742857143 0.303013714286
426.207142857 0.261776857143
426.671428571 0.261776857143
427.135714286 0.261238285714
427.6 0.261238285714
428.064285714 0.260699714286
428.528571429 0.260699714286
428.992857143 0.260699714286
429.457142857 0.260161142857
429.921428571 0.260161142857
430.385714286 0.259622571429
430.85 0.259622571429
431.314285714 0.241076
431.778571429 0.241076
432.242857143 0.245607428571
432.707142857 0.245607428571
433.171428571 0.250138857143
433.635714286 0.250138857143
434.1 0.254670285714
434.564285714 0.254670285714
435.028571429 0.259201714286
435.492857143 0.259201714286
435.957142857 0.259201714286
436.421428571 0.263733142857
436.885714286 0.263733142857
437.35 0.235733714286
437.814285714 0.235733714286
438.278571429 0.249978
438.742857143 0.249978
439.207142857 0.264222285714
439.671428571 0.264222285714
440.135714286 0.278466571429
440.6 0.278466571429
441.064285714 0.292710857143
441.528571429 0.292710857143
441.992857143 0.292710857143
442.457142857 0.285490571429
442.921428571 0.285490571429
443.385714286 0.292417714286
443.85 0.292417714286
444.314285714 0.299344857143
444.778571429 0.299344857143
445.242857143 0.306272
445.707142857 0.306272
446.171428571 0.313199142857
446.635714286 0.313199142857
447.1 0.295304571429
447.564285714 0.295304571429
448.028571429 0.298628857143
448.492857143 0.298628857143
448.957142857 0.298628857143
449.421428571 0.301953142857
449.885714286 0.301953142857
450.35 0.305277428571
450.814285714 0.305277428571
451.278571429 0.308601714286
451.742857143 0.308601714286
452.207142857 0.311926
452.671428571 0.311926
453.135714286 0.282806857143
453.6 0.282806857143
454.064285714 0.278089714286
454.528571429 0.278089714286
454.992857143 0.278089714286
455.457142857 0.273372571429
455.921428571 0.273372571429
456.385714286 0.268655428571
456.85 0.268655428571
457.314285714 0.263938285714
457.778571429 0.263938285714
458.242857143 0.243827714286
458.707142857 0.243827714286
459.171428571 0.235712
459.635714286 0.235712
460.1 0.227596285714
460.564285714 0.227596285714
461.028571429 0.219480571429
461.492857143 0.219480571429
461.957142857 0.219480571429
462.421428571 0.211364857143
462.885714286 0.211364857143
463.35 0.203249142857
463.814285714 0.203249142857
464.278571429 0.248367714286
464.742857143 0.248367714286
465.207142857 0.250094857143
465.671428571 0.250094857143
466.135714286 0.251822
466.6 0.251822
467.064285714 0.253549142857
467.528571429 0.253549142857
467.992857143 0.253549142857
468.457142857 0.255276285714
468.921428571 0.255276285714
469.385714286 0.260312
469.85 0.260312
470.314285714 0.267982
470.778571429 0.267982
471.242857143 0.275652
471.707142857 0.275652
472.171428571 0.283322
472.635714286 0.283322
473.1 0.290992
473.564285714 0.290992
474.028571429 0.275829428571
474.492857143 0.275829428571
474.957142857 0.275829428571
475.421428571 0.278930857143
475.885714286 0.278930857143
476.35 0.282032285714
476.814285714 0.282032285714
477.278571429 0.285133714286
477.742857143 0.285133714286
478.207142857 0.288235142857
478.671428571 0.288235142857
479.135714286 0.291336571429
479.6 0.291336571429
480.064285714 0.287782
480.528571429 0.287782
480.992857143 0.287782
481.457142857 0.288023428571
481.921428571 0.288023428571
482.385714286 0.288264857143
482.85 0.288264857143
483.314285714 0.288506285714
483.778571429 0.288506285714
484.242857143 0.288747714286
484.707142857 0.288747714286
485.171428571 0.287714857143
485.635714286 0.287714857143
486.1 0.287213428571
486.564285714 0.287213428571
487.028571429 0.286712
487.492857143 0.286712
487.957142857 0.286712
488.421428571 0.286210571429
488.885714286 0.286210571429
489.35 0.285709142857
489.814285714 0.285709142857
490.278571429 0.285207714286
490.742857143 0.285207714286
491.207142857 0.284066285714
491.671428571 0.284066285714
492.135714286 0.282914857143
492.6 0.282914857143
493.064285714 0.281763428571
493.528571429 0.281763428571
493.992857143 0.281763428571
494.457142857 0.280612
494.921428571 0.280612
495.385714286 0.279460571429
495.85 0.279460571429
496.314285714 0.282409142857
496.778571429 0.282409142857
497.242857143 0.281257714286
497.707142857 0.281257714286
498.171428571 0.280106285714
498.635714286 0.280106285714
499.1 0.278954857143
499.564285714 0.278954857143
500.028571429 0.277803428571
500.492857143 0.277803428571
500.957142857 0.277803428571
501.421428571 0.261804
501.885714286 0.261804
502.35 0.257179714286
502.814285714 0.257179714286
503.278571429 0.252555428571
503.742857143 0.252555428571
504.207142857 0.247931142857
504.671428571 0.247931142857
505.135714286 0.243306857143
505.6 0.243306857143
506.064285714 0.238682571429
506.528571429 0.238682571429
506.992857143 0.238682571429
507.457142857 0.238665142857
507.921428571 0.238665142857
508.385714286 0.227188
508.85 0.227188
509.314285714 0.215710857143
509.778571429 0.215710857143
510.242857143 0.204233714286
510.707142857 0.204233714286
511.171428571 0.192756571429
511.635714286 0.192756571429
512.1 0.214588857143
512.564285714 0.214588857143
513.028571429 0.209184571429
513.492857143 0.209184571429
513.957142857 0.209184571429
514.421428571 0.203780285714
514.885714286 0.203780285714
515.35 0.198376
515.814285714 0.198376
516.278571429 0.192971714286
516.742857143 0.192971714286
517.207142857 0.213955428571
517.671428571 0.213955428571
518.135714286 0.216481142857
518.6 0.216481142857
519.064285714 0.219006857143
519.528571429 0.219006857143
519.992857143 0.219006857143
520.457142857 0.221532571429
520.921428571 0.221532571429
521.385714286 0.224058285714
521.85 0.224058285714
522.314285714 0.226584
522.778571429 0.226584
523.242857143 0.243760571429
523.707142857 0.243760571429
524.171428571 0.243259142857
524.635714286 0.243259142857
525.1 0.242757714286
525.564285714 0.242757714286
526.028571429 0.242256285714
526.492857143 0.242256285714
526.957142857 0.242256285714
527.421428571 0.241754857143
527.885714286 0.241754857143
528.35 0.251779714286
528.814285714 0.251779714286
529.278571429 0.250684
529.742857143 0.250684
530.207142857 0.249588285714
530.671428571 0.249588285714
531.135714286 0.248492571429
531.6 0.248492571429
532.064285714 0.247396857143
532.528571429 0.247396857143
532.992857143 0.247396857143
533.457142857 0.246301142857
533.921428571 0.246301142857
534.385714286 0.247705428571
534.85 0.247705428571
535.314285714 0.246609714286
535.778571429 0.246609714286
536.242857143 0.245514
536.707142857 0.245514
537.171428571 0.244418285714
537.635714286 0.244418285714
538.1 0.243322571429
538.564285714 0.243322571429
539.028571429 0.242343428571
539.492857143 0.242343428571
539.957142857 0.242343428571
540.421428571 0.241470571429
540.885714286 0.241470571429
541.35 0.240597714286
541.814285714 0.240597714286
542.278571429 0.239724857143
542.742857143 0.239724857143
543.207142857 0.238852
543.671428571 0.238852
544.135714286 0.236538285714
544.6 0.236538285714
545.064285714 0.236092571429
545.528571429 0.236092571429
545.992857143 0.236092571429
546.457142857 0.235646857143
546.921428571 0.235646857143
547.385714286 0.235201142857
547.85 0.235201142857
548.314285714 0.234755428571
548.778571429 0.234755428571
549.242857143 0.234309714286
549.707142857 0.234309714286
550.171428571 0.233552
550.635714286 0.233552
551.1 0.232957714286
551.564285714 0.232957714286
552.028571429 0.232363428571
552.492857143 0.232363428571
552.957142857 0.232363428571
553.421428571 0.231769142857
553.885714286 0.231769142857
554.35 0.231174857143
554.814285714 0.231174857143
555.278571429 0.229784571429
555.742857143 0.229784571429
556.207142857 0.228930285714
556.671428571 0.228930285714
557.135714286 0.228076
557.6 0.228076
558.064285714 0.227221714286
558.528571429 0.227221714286
558.992857143 0.227221714286
559.457142857 0.226367428571
559.921428571 0.226367428571
560.385714286 0.225513142857
560.85 0.225513142857
561.314285714 0.225668571429
561.778571429 0.225668571429
562.242857143 0.224925714286
562.707142857 0.224925714286
563.171428571 0.224182857143
563.635714286 0.224182857143
564.1 0.22344
564.564285714 0.22344
565.028571429 0.222697142857
565.492857143 0.222697142857
565.957142857 0.222697142857
566.421428571 0.223266
566.885714286 0.223266
567.35 0.222876
567.814285714 0.222876
568.278571429 0.222486
568.742857143 0.222486
569.207142857 0.222096
569.671428571 0.222096
570.135714286 0.221706
570.6 0.221706
571.064285714 0.220752
571.528571429 0.220752
571.992857143 0.220752
572.457142857 0.220529142857
572.921428571 0.220529142857
573.385714286 0.220306285714
573.85 0.220306285714
574.314285714 0.220083428571
574.778571429 0.220083428571
575.242857143 0.219860571429
575.707142857 0.219860571429
576.171428571 0.219637714286
576.635714286 0.219637714286
577.1 0.220091428571
577.564285714 0.220091428571
578.028571429 0.21972
578.492857143 0.21972
578.957142857 0.21972
579.421428571 0.219348571429
579.885714286 0.219348571429
580.35 0.218977142857
580.814285714 0.218977142857
581.278571429 0.218605714286
581.742857143 0.218605714286
582.207142857 0.217551428571
582.671428571 0.217551428571
583.135714286 0.216994285714
583.6 0.216994285714
584.064285714 0.216437142857
584.528571429 0.216437142857
584.992857143 0.216437142857
585.457142857 0.21588
585.921428571 0.21588
586.385714286 0.215322857143
586.85 0.215322857143
587.314285714 0.215786285714
587.778571429 0.215786285714
588.242857143 0.215563428571
588.707142857 0.215563428571
589.171428571 0.215340571429
589.635714286 0.215340571429
590.1 0.215117714286
590.564285714 0.215117714286
591.028571429 0.214894857143
591.492857143 0.214894857143
591.957142857 0.214894857143
592.421428571 0.214672
592.885714286 0.214672
593.35 0.212810285714
593.814285714 0.212810285714
594.278571429 0.212234571429
594.742857143 0.212234571429
595.207142857 0.211658857143
595.671428571 0.211658857143
596.135714286 0.211083142857
596.6 0.211083142857
597.064285714 0.210507428571
597.528571429 0.210507428571
597.992857143 0.210507428571
598.457142857 0.210272
598.921428571 0.210272
599.385714286 0.209492
599.85 0.209492
600.314285714 0.208712
600.778571429 0.208712
601.242857143 0.207932
601.707142857 0.207932
602.171428571 0.207152
602.635714286 0.207152
603.1 0.206372
603.564285714 0.206372
604.028571429 0.205388571429
604.492857143 0.205388571429
604.957142857 0.205388571429
605.421428571 0.204274285714
605.885714286 0.204274285714
606.35 0.20316
606.814285714 0.20316
607.278571429 0.202045714286
607.742857143 0.202045714286
608.207142857 0.200931428571
608.671428571 0.200931428571
609.135714286 0.202301714286
609.6 0.202301714286
610.064285714 0.201540285714
610.528571429 0.201540285714
610.992857143 0.201540285714
611.457142857 0.200778857143
611.921428571 0.200778857143
612.385714286 0.200017428571
612.85 0.200017428571
613.314285714 0.199256
613.778571429 0.199256
614.242857143 0.188178571429
614.707142857 0.188178571429
615.171428571 0.185857142857
615.635714286 0.185857142857
616.1 0.183535714286
616.564285714 0.183535714286
617.028571429 0.181214285714
617.492857143 0.181214285714
617.957142857 0.181214285714
618.421428571 0.178892857143
618.885714286 0.178892857143
619.35 0.176571428571
619.814285714 0.176571428571
620.278571429 0.166314
620.742857143 0.166314
621.207142857 0.159832571429
621.671428571 0.159832571429
622.135714286 0.153351142857
622.6 0.153351142857
623.064285714 0.146869714286
623.528571429 0.146869714286
623.992857143 0.146869714286
624.457142857 0.140388285714
624.921428571 0.140388285714
625.385714286 0.156368571429
625.85 0.156368571429
626.314285714 0.153304285714
626.778571429 0.153304285714
627.242857143 0.15024
627.707142857 0.15024
628.171428571 0.147175714286
628.635714286 0.147175714286
629.1 0.144111428571
629.564285714 0.144111428571
630.028571429 0.141047142857
630.492857143 0.141047142857
630.957142857 0.141047142857
631.421428571 0.160138857143
631.885714286 0.160138857143
632.35 0.163834571429
632.814285714 0.163834571429
633.278571429 0.167530285714
633.742857143 0.167530285714
634.207142857 0.171226
634.671428571 0.171226
635.135714286 0.174921714286
635.6 0.174921714286
636.064285714 0.167758857143
636.528571429 0.167758857143
636.992857143 0.167758857143
637.457142857 0.169690285714
637.921428571 0.169690285714
638.385714286 0.171621714286
638.85 0.171621714286
639.314285714 0.173553142857
639.778571429 0.173553142857
640.242857143 0.175484571429
640.707142857 0.175484571429
641.171428571 0.184636
641.635714286 0.184636
642.1 0.184338857143
642.564285714 0.184338857143
643.028571429 0.184041714286
643.492857143 0.184041714286
643.957142857 0.184041714286
644.421428571 0.183744571429
644.885714286 0.183744571429
645.35 0.183447428571
645.814285714 0.183447428571
646.278571429 0.183150285714
646.742857143 0.183150285714
647.207142857 0.180868571429
647.671428571 0.180868571429
648.135714286 0.18059
648.6 0.18059
649.064285714 0.180311428571
649.528571429 0.180311428571
649.992857143 0.180311428571
650.457142857 0.180032857143
650.921428571 0.180032857143
651.385714286 0.179754285714
651.85 0.179754285714
652.314285714 0.179609428571
652.778571429 0.179609428571
653.242857143 0.179182285714
653.707142857 0.179182285714
654.171428571 0.178755142857
654.635714286 0.178755142857
655.1 0.178328
655.564285714 0.178328
656.028571429 0.177900857143
656.492857143 0.177900857143
656.957142857 0.177900857143
657.421428571 0.175895428571
657.885714286 0.175895428571
658.35 0.175821142857
658.814285714 0.175821142857
659.278571429 0.175746857143
659.742857143 0.175746857143
660.207142857 0.175672571429
660.671428571 0.175672571429
661.135714286 0.175598285714
661.6 0.175598285714
662.064285714 0.175524
662.528571429 0.175524
662.992857143 0.175524
663.457142857 0.174436571429
663.921428571 0.174436571429
664.385714286 0.174195142857
664.85 0.174195142857
665.314285714 0.173953714286
665.778571429 0.173953714286
666.242857143 0.173712285714
666.707142857 0.173712285714
667.171428571 0.173470857143
667.635714286 0.173470857143
668.1 0.172145714286
668.564285714 0.172145714286
669.028571429 0.17196
669.492857143 0.17196
669.957142857 0.17196
670.421428571 0.171774285714
670.885714286 0.171774285714
671.35 0.171588571429
671.814285714 0.171588571429
672.278571429 0.171402857143
672.742857143 0.171402857143
673.207142857 0.171217142857
673.671428571 0.171217142857
674.135714286 0.170695428571
674.6 0.170695428571
675.064285714 0.170249714286
675.528571429 0.170249714286
675.992857143 0.170249714286
676.457142857 0.169804
676.921428571 0.169804
677.385714286 0.169358285714
677.85 0.169358285714
678.314285714 0.168912571429
678.778571429 0.168912571429
679.242857143 0.166947428571
679.707142857 0.166947428571
680.171428571 0.166464571429
680.635714286 0.166464571429
681.1 0.165981714286
681.564285714 0.165981714286
682.028571429 0.165498857143
682.492857143 0.165498857143
682.957142857 0.165498857143
683.421428571 0.165016
683.885714286 0.165016
684.35 0.166779142857
684.814285714 0.166779142857
685.278571429 0.165906285714
685.742857143 0.165906285714
686.207142857 0.165033428571
686.671428571 0.165033428571
687.135714286 0.164160571429
687.6 0.164160571429
688.064285714 0.163287714286
688.528571429 0.163287714286
688.992857143 0.163287714286
689.457142857 0.162414857143
689.921428571 0.162414857143
690.385714286 0.162798
690.85 0.162798
691.314285714 0.161999428571
691.778571429 0.161999428571
692.242857143 0.161200857143
692.707142857 0.161200857143
693.171428571 0.160402285714
693.635714286 0.160402285714
694.1 0.159603714286
694.564285714 0.159603714286
695.028571429 0.159479428571
695.492857143 0.159479428571
695.957142857 0.159479428571
696.421428571 0.159423714286
696.885714286 0.159423714286
697.35 0.159368
697.814285714 0.159368
698.278571429 0.159312285714
698.742857143 0.159312285714
699.207142857 0.159256571429
699.671428571 0.159256571429
700.135714286 0.159200857143
700.6 0.159200857143
701.064285714 0.156408571429
701.528571429 0.156408571429
701.992857143 0.156408571429
702.457142857 0.156315714286
702.921428571 0.156315714286
703.385714286 0.156222857143
703.85 0.156222857143
704.314285714 0.15613
704.778571429 0.15613
705.242857143 0.156037142857
705.707142857 0.156037142857
706.171428571 0.155321714286
706.635714286 0.155321714286
707.1 0.155024571429
707.564285714 0.155024571429
708.028571429 0.154727428571
708.492857143 0.154727428571
708.957142857 0.154727428571
709.421428571 0.154430285714
709.885714286 0.154430285714
710.35 0.154133142857
710.814285714 0.154133142857
711.278571429 0.153492
711.742857143 0.153492
712.207142857 0.152990571429
712.671428571 0.152990571429
713.135714286 0.152489142857
713.6 0.152489142857
714.064285714 0.151987714286
714.528571429 0.151987714286
714.992857143 0.151987714286
715.457142857 0.151486285714
715.921428571 0.151486285714
716.385714286 0.150984857143
716.85 0.150984857143
717.314285714 0.151460571429
717.778571429 0.151460571429
718.242857143 0.151052
718.707142857 0.151052
719.171428571 0.150643428571
719.635714286 0.150643428571
720.1 0.150234857143
720.564285714 0.150234857143
721.028571429 0.149826285714
721.492857143 0.149826285714
721.957142857 0.149826285714
722.421428571 0.149484571429
722.885714286 0.149484571429
723.35 0.149001714286
723.814285714 0.149001714286
724.278571429 0.148518857143
724.742857143 0.148518857143
725.207142857 0.148036
725.671428571 0.148036
726.135714286 0.147553142857
726.6 0.147553142857
727.064285714 0.147880571429
727.528571429 0.147880571429
727.992857143 0.147880571429
728.457142857 0.147564857143
728.921428571 0.147564857143
729.385714286 0.147249142857
729.85 0.147249142857
730.314285714 0.146933428571
730.778571429 0.146933428571
731.242857143 0.146617714286
731.707142857 0.146617714286
732.171428571 0.146302
732.635714286 0.146302
733.1 0.146410285714
733.564285714 0.146410285714
734.028571429 0.145834571429
734.492857143 0.145834571429
734.957142857 0.145834571429
735.421428571 0.145258857143
735.885714286 0.145258857143
736.35 0.144683142857
736.814285714 0.144683142857
737.278571429 0.144107428571
737.742857143 0.144107428571
738.207142857 0.145477428571
738.671428571 0.145477428571
739.135714286 0.144716
739.6 0.144716
740.064285714 0.143954571429
740.528571429 0.143954571429
740.992857143 0.143954571429
741.457142857 0.143193142857
741.921428571 0.143193142857
742.385714286 0.142431714286
742.85 0.142431714286
743.314285714 0.141670285714
743.778571429 0.141670285714
744.242857143 0.142943714286
744.707142857 0.142943714286
745.171428571 0.142330857143
745.635714286 0.142330857143
746.1 0.141718
746.564285714 0.141718
747.028571429 0.141105142857
747.492857143 0.141105142857
747.957142857 0.141105142857
748.421428571 0.140492285714
748.885714286 0.140492285714
749.35 0.141208571429
749.814285714 0.141208571429
750.278571429 0.140651428571
750.742857143 0.140651428571
751.207142857 0.140094285714
751.671428571 0.140094285714
752.135714286 0.139537142857
752.6 0.139537142857
753.064285714 0.13898
753.528571429 0.13898
753.992857143 0.13898
754.457142857 0.139030571429
754.921428571 0.139030571429
755.385714286 0.138529142857
755.85 0.138529142857
756.314285714 0.138027714286
756.778571429 0.138027714286
757.242857143 0.137526285714
757.707142857 0.137526285714
758.171428571 0.137024857143
758.635714286 0.137024857143
759.1 0.136523428571
759.564285714 0.136523428571
760.028571429 0.136316
760.492857143 0.136316
760.957142857 0.136316
761.421428571 0.136204571429
761.885714286 0.136204571429
762.35 0.136093142857
762.814285714 0.136093142857
763.278571429 0.135981714286
763.742857143 0.135981714286
764.207142857 0.135870285714
764.671428571 0.135870285714
765.135714286 0.134901142857
765.6 0.134901142857
766.064285714 0.134362571429
766.528571429 0.134362571429
766.992857143 0.134362571429
767.457142857 0.133824
767.921428571 0.133824
768.385714286 0.133285428571
768.85 0.133285428571
769.314285714 0.132746857143
769.778571429 0.132746857143
770.242857143 0.132208285714
770.707142857 0.132208285714
771.171428571 0.133151428571
771.635714286 0.133151428571
772.1 0.132594285714
772.564285714 0.132594285714
773.028571429 0.132037142857
773.492857143 0.132037142857
773.957142857 0.132037142857
774.421428571 0.13148
774.885714286 0.13148
775.35 0.130922857143
775.814285714 0.130922857143
776.278571429 0.1304
776.742857143 0.1304
777.207142857 0.1304
777.671428571 0.1304
778.135714286 0.1304
778.6 0.1304
779.064285714 0.1304
779.528571429 0.1304
779.992857143 0.1304
780.457142857 0.1304
780.921428571 0.1304
781.385714286 0.128488
781.85 0.128488
782.314285714 0.128432285714
782.778571429 0.128432285714
783.242857143 0.128376571429
783.707142857 0.128376571429
784.171428571 0.128320857143
784.635714286 0.128320857143
785.1 0.128265142857
785.564285714 0.128265142857
786.028571429 0.128209428571
786.492857143 0.128209428571
786.957142857 0.128209428571
787.421428571 0.126045714286
787.885714286 0.126045714286
788.35 0.12586
788.814285714 0.12586
789.278571429 0.125674285714
789.742857143 0.125674285714
790.207142857 0.125488571429
790.671428571 0.125488571429
791.135714286 0.125302857143
791.6 0.125302857143
792.064285714 0.123442571429
792.528571429 0.123442571429
792.992857143 0.123442571429
793.457142857 0.123089714286
793.921428571 0.123089714286
794.385714286 0.122736857143
794.85 0.122736857143
795.314285714 0.122384
795.778571429 0.122384
796.242857143 0.122031142857
796.707142857 0.122031142857
797.171428571 0.122982857143
797.635714286 0.122982857143
798.1 0.122704285714
798.564285714 0.122704285714
799.028571429 0.122425714286
799.492857143 0.122425714286
799.957142857 0.122425714286
800.421428571 0.122147142857
800.885714286 0.122147142857
801.35 0.121868571429
801.814285714 0.121868571429
802.278571429 0.12159
802.742857143 0.12159
803.207142857 0.120137714286
803.671428571 0.120137714286
804.135714286 0.120193428571
804.6 0.120193428571
805.064285714 0.120249142857
805.528571429 0.120249142857
805.992857143 0.120249142857
806.457142857 0.120304857143
806.921428571 0.120304857143
807.385714286 0.120360571429
807.85 0.120360571429
808.314285714 0.1188
808.778571429 0.1188
809.242857143 0.1188
809.707142857 0.1188
810.171428571 0.1188
810.635714286 0.1188
811.1 0.1188
811.564285714 0.1188
812.028571429 0.1188
812.492857143 0.1188
812.957142857 0.1188
813.421428571 0.1188
813.885714286 0.1188
814.35 0.117297714286
814.814285714 0.117297714286
815.278571429 0.117074857143
815.742857143 0.117074857143
816.207142857 0.116852
816.671428571 0.116852
817.135714286 0.116629142857
817.6 0.116629142857
818.064285714 0.116406285714
818.528571429 0.116406285714
818.992857143 0.116406285714
819.457142857 0.117102857143
819.921428571 0.117102857143
820.385714286 0.116917142857
820.85 0.116917142857
821.314285714 0.116731428571
821.778571429 0.116731428571
822.242857143 0.116545714286
822.707142857 0.116545714286
823.171428571 0.11636
823.635714286 0.11636
824.1 0.114417714286
824.564285714 0.114417714286
825.028571429 0.113823428571
825.492857143 0.113823428571
825.957142857 0.113823428571
826.421428571 0.113229142857
826.885714286 0.113229142857
827.35 0.112634857143
827.814285714 0.112634857143
828.278571429 0.112040571429
828.742857143 0.112040571429
829.207142857 0.111446285714
829.671428571 0.111446285714
830.135714286 0.112108
830.6 0.112108
831.064285714 0.111588
831.528571429 0.111588
831.992857143 0.111588
832.457142857 0.111068
832.921428571 0.111068
833.385714286 0.110548
833.85 0.110548
834.314285714 0.110028
834.778571429 0.110028
835.242857143 0.110906857143
835.707142857 0.110906857143
836.171428571 0.110925428571
836.635714286 0.110925428571
837.1 0.110944
837.564285714 0.110944
838.028571429 0.110962571429
838.492857143 0.110962571429
838.957142857 0.110962571429
839.421428571 0.110981142857
839.885714286 0.110981142857
840.35 0.110999714286
840.814285714 0.110999714286
841.278571429 0.109580571429
841.742857143 0.109580571429
842.207142857 0.109357714286
842.671428571 0.109357714286
843.135714286 0.109134857143
843.6 0.109134857143
844.064285714 0.108912
844.528571429 0.108912
844.992857143 0.108912
845.457142857 0.108689142857
845.921428571 0.108689142857
846.385714286 0.109721428571
846.85 0.109721428571
847.314285714 0.109257142857
847.778571429 0.109257142857
848.242857143 0.108792857143
848.707142857 0.108792857143
849.171428571 0.108328571429
849.635714286 0.108328571429
850.1 0.107864285714
850.564285714 0.107864285714
851.028571429 0.107772
851.492857143 0.107772
851.957142857 0.107772
852.421428571 0.107642
852.885714286 0.107642
853.35 0.107512
853.814285714 0.107512
854.278571429 0.107382
854.742857143 0.107382
855.207142857 0.107252
855.671428571 0.107252
856.135714286 0.107122
856.6 0.107122
857.064285714 0.107514285714
857.528571429 0.107514285714
857.992857143 0.107514285714
858.457142857 0.10705
858.921428571 0.10705
859.385714286 0.106585714286
859.85 0.106585714286
860.314285714 0.106121428571
860.778571429 0.106121428571
861.242857143 0.105657142857
861.707142857 0.105657142857
862.171428571 0.106075714286
862.635714286 0.106075714286
863.1 0.105797142857
863.564285714 0.105797142857
864.028571429 0.105518571429
864.492857143 0.105518571429
864.957142857 0.105518571429
865.421428571 0.10524
865.885714286 0.10524
866.35 0.104961428571
866.814285714 0.104961428571
867.278571429 0.104677142857
867.742857143 0.104677142857
868.207142857 0.104305714286
868.671428571 0.104305714286
869.135714286 0.103934285714
869.6 0.103934285714
870.064285714 0.103562857143
870.528571429 0.103562857143
870.992857143 0.103562857143
871.457142857 0.103191428571
871.921428571 0.103191428571
872.385714286 0.10282
872.85 0.10282
873.314285714 0.103574285714
873.778571429 0.103574285714
874.242857143 0.103388571429
874.707142857 0.103388571429
875.171428571 0.103202857143
875.635714286 0.103202857143
876.1 0.103017142857
876.564285714 0.103017142857
877.028571429 0.102831428571
877.492857143 0.102831428571
877.957142857 0.102831428571
878.421428571 0.102840285714
878.885714286 0.102840285714
879.35 0.102636
879.814285714 0.102636
880.278571429 0.102431714286
880.742857143 0.102431714286
881.207142857 0.102227428571
881.671428571 0.102227428571
882.135714286 0.102023142857
882.6 0.102023142857
883.064285714 0.101818857143
883.528571429 0.101818857143
883.992857143 0.101818857143
884.457142857 0.100765142857
884.921428571 0.100765142857
885.385714286 0.100616571429
885.85 0.100616571429
886.314285714 0.100468
886.778571429 0.100468
887.242857143 0.100319428571
887.707142857 0.100319428571
888.171428571 0.100170857143
888.635714286 0.100170857143
889.1 0.099964
889.564285714 0.099964
890.028571429 0.099704
890.492857143 0.099704
890.957142857 0.099704
891.421428571 0.099444
891.885714286 0.099444
892.35 0.099184
892.814285714 0.099184
893.278571429 0.098924
893.742857143 0.098924
894.207142857 0.0990588571429
894.671428571 0.0990588571429
895.135714286 0.0987617142857
895.6 0.0987617142857
896.064285714 0.0984645714286
896.528571429 0.0984645714286
896.992857143 0.0984645714286
897.457142857 0.0981674285714
897.921428571 0.0981674285714
898.385714286 0.0978702857143
898.85 0.0978702857143
899.314285714 0.0975731428571
899.778571429 0.0975731428571
900.242857143 0.097276
900.707142857 0.097276
901.171428571 0.0969788571429
901.635714286 0.0969788571429
902.1 0.0966817142857
902.564285714 0.0966817142857
903.028571429 0.0963845714286
903.492857143 0.0963845714286
903.957142857 0.0963845714286
904.421428571 0.0960874285714
904.885714286 0.0960874285714
905.35 0.0960765714286
905.814285714 0.0960765714286
906.278571429 0.0957422857143
906.742857143 0.0957422857143
907.207142857 0.095408
907.671428571 0.095408
908.135714286 0.0950737142857
908.6 0.0950737142857
909.064285714 0.0947394285714
909.528571429 0.0947394285714
909.992857143 0.0947394285714
910.457142857 0.0944051428571
910.921428571 0.0944051428571
911.385714286 0.094916
911.85 0.094916
912.314285714 0.094526
912.778571429 0.094526
913.242857143 0.094136
913.707142857 0.094136
914.171428571 0.093746
914.635714286 0.093746
915.1 0.093356
915.564285714 0.093356
916.028571429 0.0930662857143
916.492857143 0.0930662857143
916.957142857 0.0930662857143
917.421428571 0.0928434285714
917.885714286 0.0928434285714
918.35 0.0926205714286
918.814285714 0.0926205714286
919.278571429 0.0923977142857
919.742857143 0.0923977142857
920.207142857 0.0921748571429
920.671428571 0.0921748571429
921.135714286 0.093112
921.6 0.093112
922.064285714 0.0927034285714
922.528571429 0.0927034285714
922.992857143 0.0927034285714
923.457142857 0.0922948571429
923.921428571 0.0922948571429
924.385714286 0.0918862857143
924.85 0.0918862857143
925.314285714 0.0914777142857
925.778571429 0.0914777142857
926.242857143 0.0910691428571
926.707142857 0.0910691428571
927.171428571 0.091476
927.635714286 0.091476
928.1 0.091086
928.564285714 0.091086
929.028571429 0.090696
929.492857143 0.090696
929.957142857 0.090696
930.421428571 0.090306
930.885714286 0.090306
931.35 0.089916
931.814285714 0.089916
932.278571429 0.0897088571429
932.742857143 0.0897088571429
